  STEP   TOTAL TIME             LOCATION OF OBSERVATION POINTS (K,I,J)
                      1   5   5     1   8   5     1   3   5
     1    1.0000        0.0000        0.0000        0.0000    
     1    2.0000        5.5195       1.50223E-14   4.01211E-09
     1    3.0000        11.002       2.13442E-13   2.75933E-08
     1    4.0000        16.447       1.05038E-12   8.76607E-08
     1    5.0000        21.856       3.24953E-12   1.99345E-07
     1    6.0000        27.229       7.74234E-12   3.76417E-07
     1    7.0000        32.566       1.56192E-11   6.31737E-07
     1    8.0000        37.866       2.80970E-11   9.77525E-07
     1    9.0000        43.132       4.64980E-11   1.42553E-06
     1    10.000        48.362       7.22369E-11   1.98714E-06
     1    11.000        53.557       1.06925E-10   2.67334E-06
     1    12.000        58.718       1.52280E-10   3.49484E-06
     1    13.000        63.844       2.10124E-10   4.46231E-06
     1    14.000        68.935       2.82328E-10   5.58631E-06
     1    15.000        73.993       3.71014E-10   6.87973E-06
     1    16.000        79.017       4.78491E-10   8.35566E-06
     1    17.000        84.007       6.07197E-10   1.00266E-05
     1    18.000        88.964       7.59409E-10   1.19052E-05
     1    19.000        93.888       9.37542E-10   1.40050E-05
     1    20.000        98.779       1.14421E-09   1.63385E-05
     1    21.000        103.64       1.38216E-09   1.89163E-05
     1    22.000        108.46       1.65429E-09   2.17483E-05
     1    23.000        113.26       1.96357E-09   2.48446E-05
     1    24.000        118.02       2.31119E-09   2.82159E-05
     1    25.000        122.75       2.69906E-09   3.18704E-05
     1    26.000        127.45       3.12982E-09   3.58142E-05
     1    27.000        132.11       3.60630E-09   4.00550E-05
     1    28.000        136.75       4.13070E-09   4.46018E-05
     1    29.000        141.35       4.70534E-09   4.94640E-05
     1    30.000        145.93       5.33280E-09   5.46513E-05
     1    31.000        150.47       6.01585E-09   6.01734E-05
     1    32.000        154.99       6.75738E-09   6.60400E-05
     1    33.000        159.47       7.55998E-09   7.22612E-05
     1    34.000        163.92       8.43131E-09   7.88360E-05
     1    35.000        168.35       9.37535E-09   8.57625E-05
     1    36.000        172.74       1.03954E-08   9.30493E-05
     1    37.000        177.11       1.14947E-08   1.00705E-04
     1    38.000        181.44       1.26764E-08   1.08734E-04
     1    39.000        185.75       1.39436E-08   1.17143E-04
     1    40.000        190.03       1.52995E-08   1.25939E-04
     1    41.000        194.28       1.67471E-08   1.35130E-04
     1    42.000        198.50       1.82896E-08   1.44726E-04
     1    43.000        202.70       1.99300E-08   1.54734E-04
     1    44.000        206.86       2.16266E-08   1.65165E-04
     1    45.000        211.00       2.33372E-08   1.76028E-04
     1    46.000        215.11       2.50752E-08   1.87317E-04
     1    47.000        219.20       2.68487E-08   1.99014E-04
     1    48.000        223.26       2.86658E-08   2.11122E-04
     1    49.000        227.29       3.05415E-08   2.23690E-04
     1    50.000        231.29       3.24902E-08   2.36774E-04
     1    51.000        235.27       3.45228E-08   2.50391E-04
     1    52.000        239.22       3.66479E-08   2.64548E-04
     1    53.000        243.14       3.88723E-08   2.79253E-04
     1    54.000        247.04       4.12019E-08   2.94508E-04
     1    55.000        250.91       4.36424E-08   3.10318E-04
     1    56.000        254.76       4.61990E-08   3.26687E-04
     1    57.000        258.58       4.88768E-08   3.43619E-04
     1    58.000        262.38       5.16808E-08   3.61119E-04
     1    59.000        266.15       5.46161E-08   3.79192E-04
     1    60.000        269.90       5.76882E-08   3.97844E-04
     1    61.000        273.62       6.09028E-08   4.17080E-04
     1    62.000        277.32       6.42698E-08   4.36907E-04
     1    63.000        280.99       6.78068E-08   4.57331E-04
     1    64.000        284.64       7.15183E-08   4.78358E-04
     1    65.000        288.26       7.54073E-08   4.99995E-04
     1    66.000        291.86       7.95342E-08   5.22244E-04
     1    67.000        295.44       8.40420E-08   5.45037E-04
     1    68.000        298.99       8.89066E-08   5.67920E-04
     1    69.000        302.52       9.41112E-08   5.91018E-04
     1    70.000        306.03       9.96426E-08   6.14394E-04
     1    71.000        309.51       1.05490E-07   6.38095E-04
     1    72.000        312.97       1.11647E-07   6.62161E-04
     1    73.000        316.41       1.18106E-07   6.86641E-04
     1    74.000        319.83       1.24865E-07   7.11594E-04
     1    75.000        323.22       1.31924E-07   7.37058E-04
     1    76.000        326.59       1.39284E-07   7.63061E-04
     1    77.000        329.94       1.46947E-07   7.89625E-04
     1    78.000        333.26       1.54918E-07   8.16768E-04
     1    79.000        336.57       1.63200E-07   8.44504E-04
     1    80.000        339.85       1.71799E-07   8.72850E-04
     1    81.000        343.11       1.80720E-07   9.01819E-04
     1    82.000        346.35       1.89968E-07   9.31425E-04
     1    83.000        349.56       1.99550E-07   9.61681E-04
     1    84.000        352.76       2.09472E-07   9.92597E-04
     1    85.000        355.94       2.19741E-07   1.02418E-03
     1    86.000        359.09       2.30363E-07   1.05645E-03
     1    87.000        362.22       2.41347E-07   1.08940E-03
     1    88.000        365.34       2.52699E-07   1.12306E-03
     1    89.000        368.43       2.64428E-07   1.15741E-03
     1    90.000        371.50       2.76556E-07   1.19249E-03
     1    91.000        374.55       2.89104E-07   1.22829E-03
     1    92.000        377.59       3.02089E-07   1.26487E-03
     1    93.000        380.60       3.15522E-07   1.30226E-03
     1    94.000        383.59       3.29417E-07   1.34046E-03
     1    95.000        386.56       3.43783E-07   1.37946E-03
     1    96.000        389.52       3.58632E-07   1.41925E-03
     1    97.000        392.45       3.73974E-07   1.45985E-03
     1    98.000        395.37       3.89817E-07   1.50123E-03
     1    99.000        398.26       4.06171E-07   1.54341E-03
     1    100.00        401.14       4.23045E-07   1.58638E-03
     1    101.00        404.00       4.40448E-07   1.63014E-03
     1    102.00        409.67       4.59053E-07   1.70849E-03
     1    103.00        415.24       4.79755E-07   1.80702E-03
     1    104.00        420.73       5.03140E-07   1.91671E-03
     1    105.00        426.15       5.29554E-07   2.03376E-03
     1    106.00        431.50       5.59252E-07   2.15701E-03
     1    107.00        436.77       5.92693E-07   2.28582E-03
     1    108.00        441.97       6.29984E-07   2.42014E-03
     1    109.00        447.11       6.71280E-07   2.55941E-03
     1    110.00        452.17       7.16703E-07   2.70320E-03
     1    111.00        457.17       7.66351E-07   2.85130E-03
     1    112.00        462.11       8.20307E-07   3.00359E-03
     1    113.00        466.98       8.78648E-07   3.16004E-03
     1    114.00        471.78       9.41451E-07   3.32065E-03
     1    115.00        476.53       1.00879E-06   3.48545E-03
     1    116.00        481.21       1.08075E-06   3.65448E-03
     1    117.00        485.83       1.15740E-06   3.82777E-03
     1    118.00        490.39       1.23884E-06   4.00538E-03
     1    119.00        494.89       1.32514E-06   4.18734E-03
     1    120.00        499.33       1.41641E-06   4.37372E-03
     1    121.00        503.72       1.51273E-06   4.56454E-03
     1    122.00        508.04       1.61421E-06   4.75986E-03
     1    123.00        512.32       1.72094E-06   4.95972E-03
     1    124.00        516.53       1.83302E-06   5.16416E-03
     1    125.00        520.69       1.95057E-06   5.37322E-03
     1    126.00        524.81       2.07368E-06   5.58688E-03
     1    127.00        528.88       2.20246E-06   5.80514E-03
     1    128.00        532.90       2.33703E-06   6.02802E-03
     1    129.00        536.86       2.47750E-06   6.25558E-03
     1    130.00        540.77       2.62397E-06   6.48786E-03
     1    131.00        544.63       2.77656E-06   6.72489E-03
     1    132.00        548.45       2.93540E-06   6.96672E-03
     1    133.00        552.21       3.10059E-06   7.21337E-03
     1    134.00        555.92       3.27225E-06   7.46488E-03
     1    135.00        559.59       3.45052E-06   7.72130E-03
     1    136.00        563.21       3.63552E-06   7.98266E-03
     1    137.00        566.78       3.82737E-06   8.24899E-03
     1    138.00        570.30       4.02619E-06   8.52033E-03
     1    139.00        573.78       4.23212E-06   8.79671E-03
     1    140.00        577.22       4.44528E-06   9.07817E-03
     1    141.00        580.61       4.66582E-06   9.36473E-03
     1    142.00        583.95       4.89385E-06   9.65643E-03
     1    143.00        587.26       5.12952E-06   9.95331E-03
     1    144.00        590.53       5.50007E-06   1.02554E-02
     1    145.00        593.76       5.99774E-06   1.55186E-02
     1    146.00        596.96       6.62321E-06   2.07851E-02
     1    147.00        600.11       7.37715E-06   2.60550E-02
     1    148.00        603.22       8.26017E-06   3.13283E-02
     1    149.00        606.29       9.27288E-06   3.66052E-02
     1    150.00        609.33       1.04159E-05   4.18857E-02
     1    151.00        612.32       1.16897E-05   4.71699E-02
     1    152.00        615.28       1.30949E-05   5.24578E-02
     1    153.00        618.20       1.46320E-05   5.77496E-02
     1    154.00        621.08       1.63015E-05   6.30452E-02
     1    155.00        623.92       1.81040E-05   6.83448E-02
     1    156.00        626.73       2.00398E-05   7.36485E-02
     1    157.00        629.50       2.21095E-05   7.89561E-02
     1    158.00        632.24       2.43136E-05   8.42679E-02
     1    159.00        634.94       2.66524E-05   8.95838E-02
     1    160.00        637.60       2.91265E-05   9.49039E-02
     1    161.00        640.24       3.17363E-05   0.10023    
     1    162.00        642.84       3.44821E-05   0.10556    
     1    163.00        645.41       3.73644E-05   0.11089    
     1    164.00        647.94       4.03836E-05   0.11623    
     1    165.00        650.45       4.35402E-05   0.12157    
     1    166.00        652.92       4.68344E-05   0.12691    
     1    167.00        655.36       5.02667E-05   0.13227    
     1    168.00        657.78       5.38375E-05   0.13762    
     1    169.00        660.16       5.75472E-05   0.14298    
     1    170.00        662.51       6.13961E-05   0.14834    
     1    171.00        664.84       6.53846E-05   0.15371    
     1    172.00        667.13       6.95130E-05   0.15909    
     1    173.00        669.39       7.37817E-05   0.16446    
     1    174.00        671.63       7.81911E-05   0.16985    
     1    175.00        673.84       8.27415E-05   0.17523    
     1    176.00        676.02       8.74323E-05   0.18063    
     1    177.00        678.17       9.22633E-05   0.18599    
     1    178.00        680.30       9.72349E-05   0.19136    
     1    179.00        682.40       1.02347E-04   0.19673    
     1    180.00        684.47       1.07601E-04   0.20211    
     1    181.00        686.52       1.12996E-04   0.20750    
     1    182.00        688.54       1.18533E-04   0.21289    
     1    183.00        690.54       1.24213E-04   0.21828    
     1    184.00        692.51       1.30034E-04   0.22368    
     1    185.00        694.46       1.35999E-04   0.22908    
     1    186.00        696.38       1.42107E-04   0.23449    
     1    187.00        698.28       1.48358E-04   0.23990    
     1    188.00        700.16       1.54753E-04   0.24532    
     1    189.00        702.01       1.61292E-04   0.25074    
     1    190.00        703.84       1.67975E-04   0.25617    
     1    191.00        705.64       1.74803E-04   0.26160    
     1    192.00        707.43       1.81776E-04   0.26704    
     1    193.00        709.19       1.88895E-04   0.27248    
     1    194.00        710.93       1.96158E-04   0.27793    
     1    195.00        712.65       2.03568E-04   0.28338    
     1    196.00        714.34       2.11124E-04   0.28884    
     1    197.00        716.02       2.18826E-04   0.29431    
     1    198.00        718.11       2.26675E-04   0.29977    
     1    199.00        720.18       2.34671E-04   0.30524    
     1    200.00        722.22       2.42814E-04   0.31072    
     1    201.00        724.23       2.51105E-04   0.31620    
     1    202.00        725.59       2.59503E-04   0.32060    
     1    203.00        726.97       2.67860E-04   0.32445    
     1    204.00        728.34       2.76110E-04   0.32805    
     1    205.00        729.70       2.84239E-04   0.33156    
     1    206.00        731.05       2.92255E-04   0.33506    
     1    207.00        732.38       3.00174E-04   0.33832    
     1    208.00        733.70       3.08010E-04   0.34160    
     1    209.00        735.01       3.15780E-04   0.34489    
     1    210.00        736.30       3.23497E-04   0.34820    
     1    211.00        737.59       3.31173E-04   0.35152    
     1    212.00        738.86       3.38819E-04   0.35485    
     1    213.00        740.12       3.46444E-04   0.35820    
     1    214.00        741.37       3.54056E-04   0.36155    
     1    215.00        742.61       3.61662E-04   0.36484    
     1    216.00        743.84       3.69264E-04   0.36814    
     1    217.00        745.06       3.76869E-04   0.37145    
     1    218.00        746.26       3.84482E-04   0.37477    
     1    219.00        747.46       3.92106E-04   0.37809    
     1    220.00        748.65       3.99745E-04   0.38142    
     1    221.00        749.82       4.07404E-04   0.38475    
     1    222.00        751.06       4.15084E-04   0.38809    
     1    223.00        752.29       4.22789E-04   0.39144    
     1    224.00        753.51       4.30520E-04   0.39479    
     1    225.00        754.72       4.38281E-04   0.39815    
     1    226.00        755.91       4.46072E-04   0.40151    
     1    227.00        757.10       4.53897E-04   0.40488    
     1    228.00        758.28       4.61757E-04   0.40825    
     1    229.00        759.44       4.69652E-04   0.41162    
     1    230.00        760.59       4.77585E-04   0.41500    
     1    231.00        761.74       4.85557E-04   0.41838    
     1    232.00        762.87       4.93569E-04   0.42177    
     1    233.00        763.99       5.01623E-04   0.42516    
     1    234.00        765.11       5.09718E-04   0.42856    
     1    235.00        766.21       5.17857E-04   0.43196    
     1    236.00        767.30       5.26039E-04   0.43536    
     1    237.00        768.39       5.34267E-04   0.43877    
     1    238.00        769.46       5.42541E-04   0.44218    
     1    239.00        770.52       5.50861E-04   0.44559    
     1    240.00        771.58       5.59229E-04   0.44901    
     1    241.00        772.62       5.67644E-04   0.45244    
     1    242.00        773.66       5.76108E-04   0.45586    
     1    243.00        774.69       5.84621E-04   0.45929    
     1    244.00        775.70       5.93184E-04   0.46273    
     1    245.00        776.71       6.01798E-04   0.46617    
     1    246.00        777.71       6.10462E-04   0.46961    
     1    247.00        778.70       6.19178E-04   0.47305    
     1    248.00        779.68       6.27945E-04   0.47650    
     1    249.00        780.65       6.36765E-04   0.47995    
     1    250.00        781.62       6.45638E-04   0.48341    
     1    251.00        782.57       6.54564E-04   0.48687    
     1    252.00        783.52       6.63543E-04   0.49034    
     1    253.00        784.46       6.72577E-04   0.49380    
     1    254.00        785.39       6.81665E-04   0.49728    
     1    255.00        786.31       6.90808E-04   0.50075    
     1    256.00        787.22       7.00006E-04   0.50423    
     1    257.00        788.13       7.09259E-04   0.50771    
     1    258.00        789.03       7.18569E-04   0.51215    
     1    259.00        789.92       7.27954E-04   0.51659    
     1    260.00        790.80       7.37415E-04   0.52104    
     1    261.00        791.68       7.46953E-04   0.52548    
     1    262.00        792.55       7.56567E-04   0.52992    
     1    263.00        793.41       7.66256E-04   0.53437    
     1    264.00        794.26       7.76023E-04   0.53883    
     1    265.00        795.11       7.85866E-04   0.54328    
     1    266.00        795.94       7.95787E-04   0.54775    
     1    267.00        796.77       8.05786E-04   0.55221    
     1    268.00        797.60       8.15863E-04   0.55668    
     1    269.00        798.41       8.26017E-04   0.56115    
     1    270.00        799.22       8.36250E-04   0.56563    
     1    271.00        800.02       8.46562E-04   0.57011    
     1    272.00        800.82       8.56953E-04   0.57460    
     1    273.00        801.60       9.13600E-04   0.57909    
     1    274.00        802.39       9.70336E-04   0.58358    
     1    275.00        803.16       1.02716E-03   0.58808    
     1    276.00        803.93       1.08408E-03   0.59258    
     1    277.00        804.69       1.14109E-03   0.59708    
     1    278.00        805.44       1.19819E-03   0.60159    
     1    279.00        806.19       1.25538E-03   0.60610    
     1    280.00        806.94       1.31267E-03    2.9871    
     1    281.00        807.67       1.37006E-03    2.9924    
     1    282.00        808.40       1.42754E-03    2.9977    
     1    283.00        809.13       1.47896E-03    3.0031    
     1    284.00        809.84       1.53049E-03    3.0084    
     1    285.00        810.55       1.58212E-03    3.0138    
     1    286.00        811.26       1.63385E-03    3.0191    
     1    287.00        811.96       1.68569E-03    3.0245    
     1    288.00        812.65       1.73763E-03    3.0298    
     1    289.00        813.33       1.78968E-03    3.0352    
     1    290.00        814.01       1.84093E-03    3.0406    
     1    291.00        814.69       1.89228E-03    3.0459    
     1    292.00        815.36       1.94375E-03    3.0513    
     1    293.00        816.02       1.99533E-03    3.0567    
     1    294.00        816.67       2.04703E-03    3.0621    
     1    295.00        817.32       2.09884E-03    3.0675    
     1    296.00        817.97       2.15076E-03    3.0729    
     1    297.00        818.63       2.20280E-03    3.0783    
     1    298.00        819.28       2.25495E-03    3.0838    
     1    299.00        819.93       2.30721E-03    3.0892    
     1    300.00        820.57       2.35959E-03    3.0946    
     1    301.00        821.21       2.41210E-03    3.1001    
     1    302.00        821.12       2.46470E-03    3.1050    
     1    303.00        821.06       2.51661E-03    3.1093    
     1    304.00        820.95       2.56744E-03    3.1130    
     1    305.00        820.80       2.61695E-03    3.1161    
     1    306.00        820.59       2.66496E-03    3.1187    
     1    307.00        820.35       2.71137E-03    3.1209    
     1    308.00        820.06       2.75613E-03    3.1227    
     1    309.00        819.75       2.79924E-03    3.1243    
     1    310.00        819.40       2.84071E-03    3.1256    
     1    311.00        819.03       2.88061E-03    3.1268    
     1    312.00        818.63       2.91899E-03    3.1279    
     1    313.00        818.21       2.95594E-03    3.1289    
     1    314.00        817.78       2.99156E-03    3.1299    
     1    315.00        817.33       3.02594E-03    3.1309    
     1    316.00        816.86       3.05919E-03    3.1319    
     1    317.00        816.38       3.09141E-03    3.1329    
     1    318.00        815.89       3.12271E-03    3.1341    
     1    319.00        815.39       3.15319E-03    3.1352    
     1    320.00        814.88       3.18294E-03    3.1365    
     1    321.00        814.35       3.21207E-03    3.1379    
     1    322.00        813.82       3.24066E-03    3.1394    
     1    323.00        813.29       3.26880E-03    3.1409    
     1    324.00        812.74       3.29657E-03    3.1426    
     1    325.00        812.19       3.32406E-03    3.1443    
     1    326.00        811.63       3.35132E-03    3.1462    
     1    327.00        811.07       3.37843E-03    3.1481    
     1    328.00        810.50       3.40545E-03    3.1502    
     1    329.00        809.92       3.43244E-03    3.1523    
     1    330.00        811.21       3.45945E-03    3.1545    
     1    331.00        810.63       3.48652E-03    3.1568    
     1    332.00        810.04       3.51370E-03    3.1592    
     1    333.00        809.45       3.54102E-03    3.1617    
     1    334.00        808.86       3.56853E-03    3.1642    
     1    335.00        808.26       3.59626E-03    3.1669    
     1    336.00        807.66       3.62424E-03    3.1695    
     1    337.00        807.06       3.65248E-03    3.1723    
     1    338.00        806.45       3.68103E-03    3.1751    
     1    339.00        805.85       3.70988E-03    3.1779    
     1    340.00        805.23       3.73907E-03    3.1809    
     1    341.00        804.62       3.76862E-03    3.1838    
     1    342.00        804.00       3.79852E-03    3.1869    
     1    343.00        803.39       3.82881E-03    3.1900    
     1    344.00        802.77       3.85948E-03    3.1931    
     1    345.00        802.14       3.89055E-03    3.1963    
     1    346.00        801.52       3.92203E-03    3.1996    
     1    347.00        800.89       3.95391E-03    3.2029    
     1    348.00        800.27       3.98622E-03    3.2062    
     1    349.00        799.64       4.01894E-03    3.2096    
     1    350.00        799.01       4.05208E-03    3.2131    
     1    351.00        798.37       4.08565E-03    3.2165    
     1    352.00        797.74       4.11965E-03    3.2201    
     1    353.00        797.10       4.15408E-03    3.2236    
     1    354.00        796.47       4.18893E-03    3.2272    
     1    355.00        795.83       4.22421E-03    3.2308    
     1    356.00        795.19       4.25992E-03    3.2345    
     1    357.00        794.55       4.29515E-03    3.2382    
     1    358.00        793.91       4.33077E-03    3.2419    
     1    359.00        793.27       4.36679E-03    3.2457    
     1    360.00        792.55       4.40319E-03    3.2495    
     1    361.00        791.83       4.43999E-03    3.2533    
     1    362.00        791.10       4.47718E-03    3.2571    
     1    363.00        790.38       4.51475E-03    3.2610    
     1    364.00        789.65       4.55271E-03    3.2649    
     1    365.00        788.92       4.59105E-03    3.2688    
     1    366.00        788.20       4.62977E-03    3.2727    
     1    367.00        787.47       4.66886E-03    3.2766    
     1    368.00        786.74       4.70833E-03    3.2806    
     1    369.00        786.01       4.74817E-03   0.90843    
     1    370.00        785.28       4.78837E-03   0.91195    
     1    371.00        784.55       4.82893E-03   0.91549    
     1    372.00        783.81       4.86986E-03   0.91905    
     1    373.00        783.08       4.91113E-03   0.92262    
     1    374.00        782.35       4.95277E-03   0.92621    
     1    375.00        781.61       5.00175E-03   0.92983    
     1    376.00        780.88       5.05113E-03   0.93345    
     1    377.00        780.15       5.10088E-03   0.93709    
     1    378.00        779.41       5.15101E-03   0.94075    
     1    379.00        778.68       5.20151E-03   0.94442    
     1    380.00        777.94       5.25238E-03   0.94810    
     1    381.00        777.21       5.30361E-03   0.95179    
     1    382.00        776.47       5.35519E-03   0.95550    
     1    383.00        775.74       5.40714E-03   0.95922    
     1    384.00        775.01       5.45943E-03   0.96295    
     1    385.00        774.27       5.51206E-03   0.96669    
     1    386.00        773.54       5.56504E-03   0.97045    
     1    387.00        772.80       5.58130E-03   0.97421    
     1    388.00        772.06       5.59770E-03   0.97799    
     1    389.00        771.33       5.61424E-03   0.98177    
     1    390.00        770.59       5.63093E-03   0.98557    
     1    391.00        769.85       5.64776E-03   0.98937    
     1    392.00        769.12       5.66473E-03   0.99319    
     1    393.00        768.38       5.68184E-03   0.99701    
     1    394.00        767.65       5.69909E-03    1.0008    
     1    395.00        766.91       5.71647E-03    1.0047    
     1    396.00        766.18       5.73399E-03    1.0085    
     1    397.00        765.44       5.75164E-03    1.0124    
     1    398.00        764.71       5.76942E-03    1.0163    
     1    399.00        763.97       5.78455E-03    1.0201    
     1    400.00        763.24       5.79979E-03    1.0240    
     1    401.00        762.51       5.81513E-03    1.0279    
